# BICEP2/Keck Array October 2018 Data Products
# BICEP2/Keck Array X: Constraints on Primordial Gravitational Waves using Planck, WMAP, and New BICEP2/Keck Observations through the 2015 Season
# http://bicepkeck.org/
#
# File: BK15_95_bandpass_20180920.txt
# Date: 2018-09-20
#
# BK15 95 GHz band frequency spectrum
#   Column 1 = frequency in GHz
#   Column 2 = response to a source with uniform spectra radiance
#   Column 3 = response to a source with Rayleigh-Jeans spectrum
#
# Spectra are given for a beam filling source and have been peak-normalized.
# Negative values are at the noise level of the Fourier-transform spectroscopy
# measurement.
#
# Response to a source with uniform spectral radiance (column 2) matches the
# convention used in the Planck Reduced Instrument Model (http://pla.esac.esa.int/pla,
# see Planck 2013 results IX). Response to a source with Rayleigh-Jeans 
# spectrum (column 3) matches the convention used in the WMAP bandpass files 
# available on LAMBDA (http://lambda.gsfc.nasa.gov).
#
35.00   0.00000   0.00000
35.60   0.00143   0.00055
36.20   0.00088   0.00034
36.80   0.00107   0.00043
37.40   0.00255   0.00103
38.00   0.00239   0.00098
38.60   0.00056   0.00023
39.20  -0.00040  -0.00017
39.80   0.00033   0.00014
40.40   0.00111   0.00048
41.00   0.00115   0.00051
41.60   0.00076   0.00034
42.20   0.00020   0.00009
42.80  -0.00022  -0.00010
43.40  -0.00019  -0.00009
44.00  -0.00006  -0.00003
44.60   0.00010   0.00005
45.20   0.00040   0.00020
45.80   0.00046   0.00023
46.40   0.00138   0.00069
47.00   0.00253   0.00128
47.60   0.00289   0.00149
48.20   0.00282   0.00147
48.80   0.00276   0.00145
49.40   0.00315   0.00168
50.00   0.00368   0.00199
50.60   0.00375   0.00205
51.20   0.00328   0.00181
51.80   0.00251   0.00140
52.40   0.00153   0.00087
53.00   0.00062   0.00035
53.60   0.00000   0.00000
54.20  -0.00071  -0.00042
54.80  -0.00160  -0.00095
55.40  -0.00164  -0.00098
56.00  -0.00214  -0.00129
56.60  -0.00337  -0.00206
57.20  -0.00366  -0.00226
57.80  -0.00330  -0.00206
58.40  -0.00336  -0.00212
59.00  -0.00355  -0.00226
59.60  -0.00325  -0.00209
60.20  -0.00299  -0.00194
60.80  -0.00343  -0.00225
61.40  -0.00402  -0.00267
62.00  -0.00400  -0.00268
62.60  -0.00386  -0.00261
63.20  -0.00338  -0.00231
63.80  -0.00277  -0.00191
64.40  -0.00285  -0.00198
65.00  -0.00246  -0.00173
65.60  -0.00142  -0.00101
66.20  -0.00079  -0.00056
66.80  -0.00060  -0.00043
67.40  -0.00039  -0.00028
68.00   0.00005   0.00004
68.60   0.00082   0.00061
69.20   0.00172   0.00129
69.80   0.00202   0.00152
70.40   0.00180   0.00137
71.00   0.00320   0.00245
71.60   0.00602   0.00465
72.20   0.00606   0.00472
72.80   0.00602   0.00473
73.40   0.00995   0.00789
74.00   0.01527   0.01220
74.60   0.01855   0.01494
75.20   0.02027   0.01646
75.80   0.02524   0.02066
76.40   0.03632   0.02997
77.00   0.04758   0.03956
77.60   0.05073   0.04251
78.20   0.05200   0.04391
78.80   0.07110   0.06050
79.40   0.10849   0.09302
80.00   0.12935   0.11175
80.60   0.13177   0.11469
81.20   0.17371   0.15232
81.80   0.25065   0.22142
82.40   0.29760   0.26482
83.00   0.31407   0.28151
83.60   0.37106   0.33500
84.20   0.48084   0.43722
84.80   0.57421   0.52584
85.40   0.61323   0.56555
86.00   0.64582   0.59979
86.60   0.71966   0.67303
87.20   0.80963   0.76242
87.80   0.86302   0.81828
88.40   0.87534   0.83564
89.00   0.89852   0.86359
89.60   0.93579   0.90547
90.20   0.95333   0.92862
90.80   0.95842   0.93979
91.40   0.97195   0.95935
92.00   0.99078   0.98436
92.60   1.00000   1.00000
93.20   0.98839   0.99479
93.80   0.95357   0.96593
94.40   0.91067   0.92837
95.00   0.89012   0.91319
95.60   0.90214   0.93137
96.20   0.91092   0.94633
96.80   0.89105   0.93146
97.40   0.87427   0.91959
98.00   0.87325   0.92417
98.60   0.86133   0.91714
99.20   0.83943   0.89926
99.80   0.81944   0.88315
100.40   0.79971   0.86707
101.00   0.77869   0.84933
101.60   0.75643   0.82995
102.20   0.72759   0.80302
102.80   0.68642   0.76203
103.40   0.63495   0.70900
104.00   0.57654   0.64752
104.60   0.50804   0.57388
105.20   0.42951   0.48795
105.80   0.35456   0.40510
106.40   0.29482   0.33876
107.00   0.24164   0.27922
107.60   0.18946   0.22015
108.20   0.14449   0.16883
108.80   0.11122   0.13068
109.40   0.08609   0.10171
110.00   0.06434   0.07643
110.60   0.04589   0.05481
111.20   0.03323   0.03990
111.80   0.02631   0.03177
112.40   0.02160   0.02622
113.00   0.01625   0.01983
113.60   0.01152   0.01413
114.20   0.00945   0.01165
114.80   0.00795   0.00986
115.40   0.00531   0.00662
116.00   0.00319   0.00400
116.60   0.00236   0.00297
117.20   0.00197   0.00249
117.80   0.00144   0.00183
118.40   0.00097   0.00124
119.00   0.00076   0.00098
119.60   0.00066   0.00085
120.20   0.00051   0.00066
120.80   0.00041   0.00053
121.40   0.00040   0.00052
122.00   0.00031   0.00041
122.60   0.00025   0.00033
123.20   0.00030   0.00040
123.80   0.00032   0.00043
124.40   0.00035   0.00047
125.00   0.00052   0.00070
125.60   0.00073   0.00099
126.20   0.00089   0.00121
126.80   0.00103   0.00141
127.40   0.00118   0.00162
128.00   0.00131   0.00181
128.60   0.00140   0.00194
129.20   0.00149   0.00208
129.80   0.00151   0.00212
130.40   0.00146   0.00206
131.00   0.00145   0.00205
131.60   0.00144   0.00205
132.20   0.00139   0.00198
132.80   0.00128   0.00184
133.40   0.00115   0.00166
134.00   0.00105   0.00152
134.60   0.00095   0.00138
135.20   0.00085   0.00124
135.80   0.00076   0.00111
136.40   0.00068   0.00100
137.00   0.00061   0.00090
137.60   0.00054   0.00080
138.20   0.00048   0.00072
138.80   0.00041   0.00061
139.40   0.00035   0.00053
140.00   0.00032   0.00048
140.60   0.00031   0.00047
141.20   0.00031   0.00047
141.80   0.00031   0.00047
142.40   0.00030   0.00046
143.00   0.00031   0.00048
143.60   0.00033   0.00051
144.20   0.00035   0.00055
144.80   0.00036   0.00056
145.40   0.00039   0.00061
146.00   0.00042   0.00066
146.60   0.00045   0.00071
147.20   0.00045   0.00072
147.80   0.00045   0.00072
148.40   0.00045   0.00072
149.00   0.00046   0.00074
149.60   0.00046   0.00074
150.20   0.00046   0.00075
150.80   0.00047   0.00077
151.40   0.00048   0.00078
152.00   0.00048   0.00079
152.60   0.00047   0.00077
153.20   0.00045   0.00074
153.80   0.00043   0.00071
154.40   0.00043   0.00072
155.00   0.00042   0.00070
155.60   0.00040   0.00067
156.20   0.00039   0.00066
156.80   0.00039   0.00066
157.40   0.00038   0.00065
158.00   0.00038   0.00065
158.60   0.00037   0.00063
159.20   0.00036   0.00062
159.80   0.00034   0.00059
160.40   0.00031   0.00054
161.00   0.00030   0.00052
161.60   0.00028   0.00049
162.20   0.00025   0.00044
162.80   0.00022   0.00039
163.40   0.00020   0.00035
164.00   0.00018   0.00032
164.60   0.00000   0.00000
